Time [s]	Sensor 1: Pt100-4wire @Keysight [°C]	Sensor 2: DS18B20 @GPIO [°C]	Sensor 3: DS18B20 @GPIO [°C]
4.09	17.7209527	17.3125	17.25
7.22	17.7197632	17.3125	17.25
10.34	17.7192688	17.3125	17.25
13.39	18.5732054	17.75	17.3125
16.49	21.9140423	20.25	17.3125
19.61	23.4596597	22.3125	17.3125
22.67	24.6179568	23.8125	17.3125
25.71	25.6808342	24.9375	17.3125
28.85	26.5046401	25.75	17.375
31.99	27.1825226	26.5	17.3125
35.09	27.7458044	27.0625	17.375
38.32	28.2706063	27.5625	17.375
41.43	28.6943378	27.9375	17.375
44.55	29.0600973	28.3125	17.375
47.63	29.371088	28.5625	17.375
50.71	29.6484217	28.875	17.375
53.83	29.9022814	29.125	17.4375
56.95	30.1246994	29.3125	17.4375
60.08	30.324164	29.5625	17.4375
63.2	30.5023874	29.6875	17.4375
66.38	30.6644879	29.875	17.4375
69.54	30.8125771	30.0	17.4375
72.62	30.9465697	30.1875	17.4375
75.74	31.0764684	30.3125	17.5
78.85	31.1970207	30.4375	17.5
82.0	31.2052567	30.5	17.5
85.1	31.3355262	30.75	17.5
88.23	31.4502078	30.875	17.5625
91.35	31.6637194	30.9375	17.5625
94.47	32.1137933	31.1875	17.5625
97.61	32.3107475	31.4375	17.5625
100.73	32.4590825	31.5625	17.625
103.82	32.5691262	31.6875	18.375
106.96	32.5707678	31.8125	19.4375
110.05	32.3967935	31.8125	19.5
113.14	32.2608799	31.8125	19.4375
116.19	32.0564074	31.6875	20.3125
119.28	32.1080562	31.6875	23.0
122.35	31.8115103	31.8125	24.5
125.41	31.7785948	32.0	25.6875
128.52	31.9468493	32.125	27.0625
131.63	32.1672876	32.1875	28.125
134.68	32.3160399	32.3125	28.8125
137.71	32.4254803	32.375	29.3125
140.76	32.5148337	32.4375	29.625
143.79	32.5889812	32.5	29.9375
146.86	32.6549624	32.5	30.1875
150.08	32.7387805	32.375	30.625
153.28	32.766813	32.25	30.875
156.4	32.8078793	32.1875	31.0625
159.51	32.8450645	32.1875	31.1875
162.64	32.9109986	32.1875	31.3125
165.75	32.9220512	32.1875	31.4375
168.87	32.9427417	32.1875	31.5625
172.0	32.9668913	32.1875	31.625
175.08	32.9915289	32.25	31.75
178.22	33.0157452	32.25	31.875
181.36	33.0400844	32.3125	31.9375
184.46	33.0550304	32.3125	31.9375
187.6	32.9122445	32.25	31.75
190.68	32.7457876	32.125	31.625
193.71	32.582659	31.9375	31.4375
196.76	32.3826108	31.75	31.25
199.89	32.1764071	31.625	31.125
202.98	31.9754268	31.4375	30.9375
206.04	31.8032118	31.3125	30.8125
209.08	31.6537807	31.1875	30.6875
212.12	31.4903888	31.0	30.5625
215.15	31.3078742	30.875	30.4375
218.2	31.1381316	30.6875	30.3125
221.22	30.977357	30.625	30.1875
224.27	30.8219631	30.4375	30.0625
227.32	30.659653	30.3125	29.9375
230.36	30.4761607	30.1875	29.8125
233.38	30.3171507	30.0625	29.75
236.42	30.1650096	29.875	29.625
239.47	29.9915604	29.75	29.5
242.65	29.8177626	29.625	29.375
245.71	29.6857028	29.5	29.3125
248.75	29.5478652	29.375	29.1875
251.87	29.397521	29.25	29.0625
254.99	29.2495978	29.125	29.0
258.03	29.1173206	29.0	28.875
261.02	28.9956715	28.875	28.75
264.12	28.8611898	28.75	28.6875
267.2	28.7220867	28.625	28.5625
270.27	28.5879131	28.5	28.5
273.31	28.4524562	28.375	28.375
276.3	28.3213031	28.25	28.3125
279.39	28.1804941	28.125	28.1875
282.5	28.048661	28.0625	28.125
285.55	27.9191612	27.9375	28.0
288.67	27.7946007	27.8125	27.9375
291.71	27.6732564	27.6875	27.8125
294.82	27.5653953	27.5625	27.75
297.87	27.4546015	27.4375	27.6875
300.9	27.3352102	27.375	27.5625
303.96	27.2256944	27.25	27.5
306.99	27.123184	27.1875	27.4375
310.05	26.9990192	27.0625	27.3125
313.16	26.8753484	26.9375	27.25
316.27	26.7861221	26.875	27.125
319.32	26.686838	26.75	27.0625
322.35	26.5859655	26.625	27.0
325.39	26.4630689	26.5625	26.875
328.52	26.3590905	26.4375	26.8125
331.54	26.2617438	26.375	26.75
334.58	26.1685642	26.25	26.6875
337.61	26.0779861	26.1875	26.5625
340.67	25.991209	26.0625	26.5
343.72	25.9081425	26.0	26.4375
346.76	25.8199792	25.875	26.375
349.79	25.7334187	25.8125	26.3125
352.91	25.649514	25.75	26.1875
355.96	25.563703	25.625	26.125
359.07	25.4731584	25.5625	26.0625
362.07	25.3910521	25.5	26.0
365.15	25.3051247	25.375	25.9375
368.2	25.223783	25.3125	25.875
371.24	25.1392649	25.25	25.8125
374.26	25.0588868	25.125	25.6875
377.31	24.9881181	25.0625	25.625
380.33	24.9220397	25.0	25.5625
383.4	24.8472177	25.0	25.5
386.44	24.774669	24.8125	25.4375
389.46	24.7024121	24.75	25.4375
392.48	24.6316864	24.6875	25.3125
395.56	24.5545491	24.625	25.25
398.64	24.4852595	24.5	25.1875
401.69	24.4161801	24.4375	25.125
404.76	24.3464251	24.375	25.0625
407.74	24.2865229	24.3125	25.0
410.85	24.2236092	24.25	24.9375
413.95	24.1560195	24.1875	24.875
417.16	24.0880198	24.125	24.8125
420.18	24.0227902	24.0625	24.75
423.22	23.9543853	24.0	24.6875
426.26	23.893361	23.9375	24.625
429.31	23.834564	23.8125	24.5625
432.36	23.7793676	23.75	24.5
435.4	23.7236461	23.75	24.4375
438.45	23.6732682	23.6875	24.375
441.55	23.6170129	23.5625	24.375
444.59	23.5472344	23.5625	24.25
447.61	23.4833729	23.5	24.25
450.66	23.4272296	23.4375	24.1875
453.85	23.3700831	23.375	24.125
456.92	23.3205125	23.3125	24.0625
459.93	23.2691282	23.25	24.0
463.01	23.2158902	23.1875	23.9375
466.1	23.1613281	23.125	23.9375
469.23	23.1102021	23.0625	23.875
472.27	23.0611861	23.0625	23.8125
475.3	23.0088992	23.0	23.75
478.37	22.9605991	22.9375	23.6875
481.48	22.9149098	22.875	23.6875
484.51	22.8651568	22.8125	23.625
487.54	22.8131123	22.8125	23.5625
490.58	22.7548949	22.6875	23.5
