Time [s]	Voltage set [V]	Voltage measured [V]
0.1	0.0	0.0
0.2	0.0	0.0
0.35	0.0	0.0
0.48	0.0	0.0
0.62	0.0	0.0
0.74	0.0	0.0
0.87	0.0	0.0
1.01	0.0	0.0
1.17	0.5	0.0
1.3	0.5	0.0
1.42	0.5	0.0
1.56	0.5	0.0
1.69	0.5	0.0
1.81	0.5	0.0
1.94	0.5	0.502
2.05	0.5	0.502
2.19	1.0	0.502
2.34	1.0	0.502
2.46	1.0	1.0022
2.59	1.0	1.0022
2.72	1.0	1.0022
2.85	1.0	1.0022
2.98	1.0	1.0022
3.16	1.5	1.0022
3.29	1.5	1.0026
3.41	1.5	1.0026
3.52	1.5	1.0026
3.64	1.5	1.5051
3.76	1.5	1.5051
3.89	1.5	1.5051
4.01	1.5	1.5051
4.2	2.0	1.5051
4.32	2.0	1.5051
4.43	2.0	1.5051
4.56	2.0	1.5051
4.69	2.0	1.5051
4.82	2.0	1.5051
4.95	2.0	2.0048
5.1	2.0	2.0048
5.27	2.5	2.0048
5.4	2.5	2.2349
5.53	2.5	2.2349
5.66	2.5	2.2349
5.78	2.5	2.2349
5.91	2.5	2.2349
6.04	2.5	2.5022
6.15	2.5	2.5022
6.31	3.0	2.5022
6.43	3.0	2.5022
6.54	3.0	2.5022
6.67	3.0	3.0021
6.79	3.0	3.0021
6.91	3.0	3.0021
7.04	3.0	3.0021
7.17	3.0	3.0021
7.29	3.5	3.0026
7.42	3.5	3.0026
7.55	3.5	3.0026
7.69	3.5	3.5024
7.82	3.5	3.5024
7.95	3.5	3.5024
8.08	3.5	3.5024
8.2	3.5	3.5024
8.33	4.0	3.5024
8.46	4.0	3.5025
8.58	4.0	3.5025
8.72	4.0	3.5025
8.85	4.0	3.5025
8.97	4.0	4.0013
9.1	4.0	4.0013
9.23	4.0	4.0013
9.42	4.5	4.0013
9.55	4.5	4.2419
9.68	4.5	4.2419
9.81	4.5	4.2419
9.95	4.5	4.2419
10.08	4.5	4.2419
10.21	4.5	4.5023
10.39	5.0	4.5023
10.52	5.0	4.5023
10.63	5.0	4.5023
10.76	5.0	5.002
10.87	5.0	5.002
11.0	5.0	5.002
11.12	5.0	5.002
11.25	5.0	5.002
11.42	5.5	5.0022
11.56	5.5	5.0022
11.69	5.5	5.0022
11.82	5.5	5.0022
11.94	5.5	5.0022
12.07	5.5	5.4991
12.2	5.5	5.4991
12.32	5.5	5.4991
12.5	6.0	5.4991
12.63	6.0	5.4993
12.76	6.0	5.4993
12.9	6.0	5.4993
13.03	6.0	5.4993
13.16	6.0	6.0027
13.29	6.0	6.0027
13.43	6.0	6.0027
13.62	6.5	6.0027
13.75	6.5	6.0028
13.89	6.5	6.0028
14.02	6.5	6.0028
14.14	6.5	6.0028
14.28	6.5	6.5028
14.41	6.5	6.5028
14.59	7.0	6.5028
14.72	7.0	6.5028
14.84	7.0	7.0025
14.96	7.0	7.0025
15.09	7.0	7.0025
15.21	7.0	7.0025
15.34	7.0	7.0025
15.47	7.0	7.003
15.64	7.5	7.003
15.78	7.5	7.003
15.91	7.5	7.003
16.02	7.5	7.003
16.15	7.5	7.5016
16.25	7.5	7.5016
16.38	7.5	7.5016
16.51	7.5	7.5016
16.64	7.5	7.5016
16.77	8.0	7.5019
16.91	8.0	7.5019
17.03	8.0	7.5019
17.16	8.0	8.0021
17.29	8.0	8.0021
17.42	8.0	8.0021
17.54	8.0	8.0021
17.67	8.0	8.0021
17.79	8.5	8.0021
17.92	8.5	8.0023
18.06	8.5	8.0023
18.18	8.5	8.0023
18.31	8.5	8.0023
18.45	8.5	8.5006
18.58	8.5	8.5006
18.71	8.5	8.5006
18.88	9.0	8.5006
19.01	9.0	8.9585
19.15	9.0	8.9585
19.27	9.0	8.9585
19.41	9.0	8.9585
19.54	9.0	8.9585
19.67	9.0	9.0012
19.85	9.5	9.0012
19.98	9.5	9.0012
20.13	9.5	9.0012
20.26	9.5	9.5026
20.4	9.5	9.5026
20.53	9.5	9.5026
20.65	9.5	9.5026
20.79	9.5	9.5027
20.96	10.0	9.5027
21.09	10.0	9.5027
21.21	10.0	9.5027
21.34	10.0	9.5027
21.46	10.0	10.0014
21.61	10.0	10.0014
21.74	10.0	10.0014
21.92	10.5	10.0014
22.06	10.5	10.0029
22.19	10.5	10.0029
22.34	10.5	10.0029
22.48	10.5	10.0029
22.61	10.5	10.5008
22.74	10.5	10.5008
22.87	10.5	10.5008
23.0	11.0	10.5008
23.13	11.0	10.5008
23.26	11.0	10.9971
23.38	11.0	10.9971
23.52	11.0	10.9971
23.64	11.0	10.9971
23.76	11.0	10.9988
23.91	11.0	10.9988
24.09	11.5	10.9988
24.22	11.5	10.9988
24.34	11.5	10.9988
24.47	11.5	11.5003
24.57	11.5	11.5003
24.7	11.5	11.5003
24.83	11.5	11.5003
25.0	12.0	11.5008
25.14	12.0	11.5008
25.27	12.0	11.5008
25.4	12.0	11.5008
25.52	12.0	11.5008
25.64	12.0	12.0009
25.75	12.0	12.0009
25.88	12.0	12.0009
26.06	12.5	12.0009
26.18	12.5	12.0009
26.31	12.5	12.2072
26.41	12.5	12.2072
26.54	12.5	12.2072
26.67	12.5	12.2072
26.8	12.5	12.5041
26.93	12.5	12.5041
27.18	13.0	12.5041
27.31	13.0	12.9949
27.44	13.0	12.9949
27.57	13.0	12.9949
27.7	13.0	12.9949
27.83	13.0	12.9949
27.96	13.0	13.0004
28.19	13.5	13.0004
28.32	13.5	13.0004
28.43	13.5	13.0004
28.56	13.5	13.5003
28.66	13.5	13.5003
28.78	13.5	13.5003
28.9	13.5	13.5003
29.03	13.5	13.5003
29.2	14.0	13.5007
29.3	14.0	13.5007
29.43	14.0	13.5007
29.53	14.0	13.5007
29.65	14.0	13.5007
29.78	14.0	14.0014
29.93	14.0	14.0014
30.06	14.0	14.0014
30.24	14.5	14.0014
30.38	14.5	14.0014
30.51	14.5	14.0014
30.67	14.5	14.0014
30.8	14.5	14.0014
30.92	14.5	14.5004
31.04	14.5	14.5004
31.18	14.5	14.5004
31.3	15.0	14.5004
31.42	15.0	14.5004
31.55	15.0	14.9982
31.7	15.0	14.9982
31.83	15.0	14.9982
31.95	15.0	14.9982
32.08	15.0	14.9995
32.21	15.0	14.9995
32.41	15.5	14.9995
32.53	15.5	14.9995
32.67	15.5	15.4977
32.8	15.5	15.4977
32.93	15.5	15.4977
33.04	15.5	15.4977
33.17	15.5	15.4977
33.35	16.0	15.4977
33.49	16.0	15.4986
33.62	16.0	15.4986
33.76	16.0	15.4986
33.89	16.0	15.4986
34.02	16.0	15.999
34.15	16.0	15.999
34.28	16.0	15.999
34.41	16.5	15.999
34.54	16.5	15.9994
34.67	16.5	15.9994
34.8	16.5	15.9994
34.93	16.5	15.9994
35.07	16.5	16.5001
35.19	16.5	16.5001
35.32	16.5	16.5001
35.45	17.0	16.5001
35.57	17.0	16.5001
35.7	17.0	16.9996
35.83	17.0	16.9996
35.96	17.0	16.9996
36.06	17.0	16.9996
36.18	17.0	16.9996
36.32	17.0	17.0008
36.43	17.5	17.0008
36.55	17.5	17.0008
36.68	17.5	17.0008
36.81	17.5	17.0008
36.93	17.5	17.5006
37.05	17.5	17.5006
37.18	17.5	17.5006
37.31	17.5	17.5006
37.45	17.5	17.5006
37.57	18.0	17.5008
37.71	18.0	17.5008
37.84	18.0	17.5008
37.98	18.0	18.0023
38.11	18.0	18.0023
38.24	18.0	18.0023
38.36	18.0	18.0023
38.49	18.0	18.0023
38.61	18.5	18.0023
38.74	18.5	18.0027
38.87	18.5	18.0027
39.0	18.5	18.0027
39.13	18.5	18.0027
39.26	18.5	18.5008
39.36	18.5	18.5008
39.5	18.5	18.5008
39.69	19.0	18.5008
39.82	19.0	18.7517
39.95	19.0	18.7517
40.08	19.0	18.7517
40.22	19.0	18.7517
40.35	19.0	18.7517
40.47	19.0	19.0016
40.67	19.5	19.0016
40.8	19.5	19.0016
40.92	19.5	19.0016
41.05	19.5	19.498
41.17	19.5	19.498
41.3	19.5	19.498
41.44	19.5	19.498
41.56	19.5	19.498
41.69	20.0	19.4985
41.82	20.0	19.4985
41.94	20.0	19.4985
42.04	20.0	19.4985
42.17	20.0	20.0003
42.3	20.0	20.0003
42.43	20.0	20.0003
42.54	20.0	20.0003
42.76	20.5	20.0003
42.89	20.5	20.0004
43.01	20.5	20.0004
43.14	20.5	20.0004
43.27	20.5	20.0004
43.4	20.5	20.0004
43.53	20.5	20.4991
43.66	20.5	20.4991
43.78	21.0	20.4991
43.91	21.0	20.4991
44.01	21.0	20.4991
44.14	21.0	20.9959
44.25	21.0	20.9959
44.37	21.0	20.9959
44.5	21.0	20.9982
44.6	21.0	20.9982
44.71	21.0	20.9982
44.84	21.5	20.9982
44.96	21.5	20.9982
45.09	21.5	20.9982
45.23	21.5	21.4976
45.35	21.5	21.4976
45.48	21.5	21.4976
45.6	21.5	21.4976
45.73	21.5	21.4982
45.86	22.0	21.4982
45.98	22.0	21.4982
46.11	22.0	21.4982
46.25	22.0	21.4982
46.38	22.0	21.9996
46.53	22.0	21.9996
46.66	22.0	21.9996
46.89	22.5	21.9996
47.02	22.5	21.9997
47.14	22.5	21.9997
47.27	22.5	21.9997
47.4	22.5	21.9997
47.53	22.5	21.9997
47.66	22.5	22.5001
47.88	23.0	22.5001
48.01	23.0	22.5001
48.12	23.0	22.5001
48.25	23.0	22.9995
48.38	23.0	22.9995
48.51	23.0	22.9995
48.64	23.0	23.0006
48.77	23.0	23.0006
48.92	23.5	23.0006
49.05	23.5	23.0006
49.18	23.5	23.0006
49.3	23.5	23.0006
49.43	23.5	23.5003
49.57	23.5	23.5003
49.7	23.5	23.5003
49.88	24.0	23.5003
50.02	24.0	23.5006
50.15	24.0	23.5006
50.29	24.0	23.5006
50.42	24.0	23.5006
50.55	24.0	23.9994
50.68	24.0	23.9994
50.81	24.0	23.9994
50.95	24.5	23.9994
51.09	24.5	24.3083
51.22	24.5	24.3083
51.35	24.5	24.3083
51.49	24.5	24.3083
51.61	24.5	24.3083
51.74	24.5	24.4988
51.92	25.0	24.4988
52.05	25.0	24.4988
52.15	25.0	24.4988
52.28	25.0	24.9991
52.38	25.0	24.9991
52.51	25.0	24.9991
52.64	25.0	24.9991
52.77	25.0	24.9991
52.99	25.5	24.9997
53.12	25.5	24.9997
53.24	25.5	24.9997
53.37	25.5	24.9997
53.5	25.5	25.4982
53.6	25.5	25.4982
53.73	25.5	25.4982
53.85	25.5	25.4982
53.98	26.0	25.4994
54.11	26.0	25.4994
54.23	26.0	25.4994
54.33	26.0	25.4994
54.46	26.0	25.4994
54.59	26.0	25.9994
54.72	26.0	25.9994
54.85	26.0	25.9994
55.03	26.5	25.9994
55.16	26.5	25.9994
55.3	26.5	26.4975
55.42	26.5	26.4975
55.56	26.5	26.4975
55.67	26.5	26.4975
55.8	26.5	26.4975
55.98	27.0	26.4975
56.12	27.0	26.4994
56.25	27.0	26.4994
56.39	27.0	26.9972
56.52	27.0	26.9972
56.65	27.0	26.9972
56.78	27.0	26.9972
56.91	27.0	26.9972
57.04	27.5	26.9972
57.16	27.5	26.9976
57.29	27.5	26.9976
57.43	27.5	26.9976
57.56	27.5	26.9976
57.69	27.5	27.4973
57.79	27.5	27.4973
57.91	27.5	27.4973
58.09	28.0	27.4973
58.21	28.0	27.7395
58.35	28.0	27.7395
58.47	28.0	27.7395
58.59	28.0	27.7395
58.72	28.0	27.7395
58.85	28.0	27.9972
59.02	28.5	27.9972
59.16	28.5	27.9972
59.29	28.5	27.9972
59.42	28.5	28.4963
59.55	28.5	28.4963
59.68	28.5	28.4963
59.82	28.5	28.4963
59.95	28.5	28.4963
60.08	29.0	28.497
60.21	29.0	28.497
60.33	29.0	28.497
60.43	29.0	28.497
60.56	29.0	28.497
60.69	29.0	28.9966
60.79	29.0	28.9966
60.92	29.0	28.9966
61.1	29.5	28.9966
61.23	29.5	29.0111
61.33	29.5	29.0111
61.46	29.5	29.0111
61.59	29.5	29.0111
61.71	29.5	29.0111
61.81	29.5	29.0111
61.94	29.5	29.4971
62.12	30.0	29.4971
62.25	30.0	29.4971
62.35	30.0	29.4971
62.48	30.0	29.9959
62.58	30.0	29.9959
62.71	30.0	29.9959
62.84	30.0	29.9959
62.97	30.0	29.9959
63.19	29.5	29.9972
63.32	29.5	29.9972
63.44	29.5	29.9972
63.57	29.5	29.4977
63.67	29.5	29.4977
63.8	29.5	29.4977
63.93	29.5	29.4977
64.05	29.5	29.4977
64.17	29.0	29.4977
64.3	29.0	29.4977
64.42	29.0	29.4977
64.55	29.0	29.4977
64.67	29.0	29.4977
64.8	29.0	28.9975
64.93	29.0	28.9975
65.06	29.0	28.9975
65.23	28.5	28.9975
65.35	28.5	28.791
65.49	28.5	28.791
65.62	28.5	28.791
65.76	28.5	28.791
65.89	28.5	28.791
66.02	28.5	28.497
66.19	28.0	28.497
66.32	28.0	28.497
66.44	28.0	28.497
66.58	28.0	27.9981
66.68	28.0	27.9981
66.81	28.0	27.9981
66.94	28.0	27.9981
67.07	28.0	27.9981
67.3	27.5	27.9978
67.43	27.5	27.9978
67.55	27.5	27.9978
67.68	27.5	27.9978
67.81	27.5	27.4981
67.96	27.5	27.4981
68.09	27.5	27.4981
68.27	27.0	27.4981
68.4	27.0	27.498
68.53	27.0	27.498
68.64	27.0	27.498
68.77	27.0	27.498
68.9	27.0	26.9983
69.03	27.0	26.9983
69.15	27.0	26.9983
69.27	27.0	26.9983
69.4	26.5	26.9983
69.52	26.5	26.9983
69.65	26.5	26.9244
69.78	26.5	26.9244
69.91	26.5	26.9244
70.05	26.5	26.5
70.18	26.5	26.5
70.36	26.0	26.5
70.49	26.0	26.5
70.62	26.0	26.5
70.77	26.0	26.0003
70.9	26.0	26.0003
71.03	26.0	26.0003
71.14	26.0	26.0003
71.27	26.0	25.9999
71.44	25.5	25.9999
71.56	25.5	25.9999
71.68	25.5	25.9999
71.81	25.5	25.9999
71.94	25.5	25.4991
72.07	25.5	25.4991
72.19	25.5	25.4991
72.31	25.5	25.4991
72.44	25.0	25.4992
72.57	25.0	25.4992
72.69	25.0	25.4992
72.83	25.0	25.4992
72.95	25.0	25.4992
73.08	25.0	25.0005
73.21	25.0	25.0005
73.34	25.0	25.0005
73.51	24.5	25.0005
73.64	24.5	24.688
73.77	24.5	24.688
73.9	24.5	24.688
74.04	24.5	24.688
74.17	24.5	24.688
74.3	24.5	24.4996
74.48	24.0	24.4996
74.61	24.0	24.4996
74.76	24.0	24.0
74.88	24.0	24.0
74.98	24.0	24.0
75.11	24.0	24.0
75.23	24.0	24.0
75.36	24.0	24.0
75.53	23.5	24.0002
75.67	23.5	24.0002
75.8	23.5	24.0002
75.93	23.5	24.0002
76.05	23.5	24.0002
76.18	23.5	23.5013
76.33	23.5	23.5013
76.46	23.5	23.5013
76.59	23.0	23.5013
76.71	23.0	23.5013
76.84	23.0	23.5013
76.99	23.0	23.5013
77.12	23.0	23.5013
77.25	23.0	23.0013
77.37	23.0	23.0013
77.5	23.0	23.0013
77.64	22.5	23.0013
77.77	22.5	22.5172
77.89	22.5	22.5172
78.02	22.5	22.5172
78.14	22.5	22.5172
78.27	22.5	22.5172
78.4	22.5	22.5008
78.53	22.5	22.5008
78.7	22.0	22.5008
78.83	22.0	22.5008
78.94	22.0	22.5008
79.06	22.0	22.0006
79.18	22.0	22.0006
79.31	22.0	22.0006
79.44	22.0	22.0006
79.57	22.0	22.0006
79.7	21.5	22.0003
79.83	21.5	22.0003
79.96	21.5	22.0003
80.1	21.5	21.4999
80.23	21.5	21.4999
80.36	21.5	21.4999
80.49	21.5	21.4999
80.61	21.5	21.4999
80.77	21.0	21.4999
80.9	21.0	21.4996
81.02	21.0	21.4996
81.15	21.0	21.4996
81.29	21.0	20.9999
81.43	21.0	20.9999
81.56	21.0	20.9999
81.76	20.5	20.9999
81.89	20.5	20.9999
82.02	20.5	20.5009
82.15	20.5	20.5009
82.28	20.5	20.5009
82.4	20.5	20.5009
82.53	20.5	20.4998
82.65	20.5	20.4998
82.78	20.0	20.4998
82.9	20.0	20.4998
83.03	20.0	20.4998
83.18	20.0	20.0014
83.31	20.0	20.0014
83.45	20.0	20.0014
83.58	20.0	20.0014
83.81	19.5	20.0012
83.95	19.5	20.0012
84.1	19.5	20.0012
84.23	19.5	20.0012
84.35	19.5	19.4994
84.47	19.5	19.4994
84.6	19.5	19.4994
84.78	19.0	19.4994
84.9	19.0	19.0717
85.03	19.0	19.0717
85.16	19.0	19.0717
85.28	19.0	19.0717
85.4	19.0	19.0717
85.53	19.0	19.0024
85.68	19.0	19.0024
85.87	18.5	19.0024
86.0	18.5	19.0024
86.13	18.5	18.5022
86.26	18.5	18.5022
86.39	18.5	18.5022
86.52	18.5	18.5022
86.62	18.5	18.5022
86.75	18.5	18.5016
86.86	18.5	18.5016
86.97	18.0	18.5016
87.12	18.0	18.5016
87.25	18.0	18.5016
87.39	18.0	18.0038
87.51	18.0	18.0038
87.64	18.0	18.0038
87.76	18.0	18.0038
87.89	18.0	18.0033
88.02	17.5	18.0033
88.14	17.5	18.0033
88.27	17.5	18.0033
88.4	17.5	18.0033
88.53	17.5	17.502
88.64	17.5	17.502
88.77	17.5	17.502
88.9	17.5	17.502
89.07	17.0	17.502
89.2	17.0	17.5018
89.32	17.0	17.5018
89.45	17.0	17.5018
89.58	17.0	17.5018
89.73	17.0	17.5018
89.86	17.0	17.0016
89.97	17.0	17.0016
90.09	16.5	17.0016
90.23	16.5	17.0016
90.36	16.5	16.5034
90.48	16.5	16.5034
90.62	16.5	16.5034
90.75	16.5	16.5034
90.88	16.5	16.5034
91.0	16.5	16.5012
91.13	16.0	16.5012
91.26	16.0	16.5012
91.39	16.0	16.0004
91.52	16.0	16.0004
91.65	16.0	16.0004
91.77	16.0	16.0004
91.9	16.0	16.0004
92.03	16.0	16.0002
92.22	15.5	16.0002
92.35	15.5	16.0002
92.45	15.5	16.0002
92.58	15.5	16.0002
92.71	15.5	15.4994
92.81	15.5	15.4994
92.94	15.5	15.4994
93.07	15.5	15.4994
93.2	15.0	15.4994
93.33	15.0	15.4992
93.47	15.0	15.4992
93.6	15.0	15.4992
93.73	15.0	15.4992
93.88	15.0	15.0005
94.01	15.0	15.0005
94.19	14.5	15.0005
94.33	14.5	15.0005
94.45	14.5	14.5021
94.58	14.5	14.5021
94.71	14.5	14.5021
94.84	14.5	14.5021
94.97	14.5	14.5021
95.1	14.5	14.5013
95.24	14.0	14.5013
95.37	14.0	14.5013
95.51	14.0	14.5013
95.63	14.0	14.5013
95.76	14.0	14.0025
95.89	14.0	14.0025
96.02	14.0	14.0025
96.21	13.5	14.0025
96.35	13.5	14.0023
96.48	13.5	14.0023
96.61	13.5	14.0023
96.74	13.5	14.0023
96.87	13.5	13.5017
97.0	13.5	13.5017
97.12	13.5	13.5017
97.25	13.0	13.5017
97.37	13.0	13.0873
97.5	13.0	13.0873
97.63	13.0	13.0873
97.76	13.0	13.0873
97.89	13.0	13.0873
98.02	13.0	13.0013
98.15	13.0	13.0013
98.28	12.5	13.0013
98.41	12.5	13.0013
98.54	12.5	12.5054
98.69	12.5	12.5054
98.82	12.5	12.5054
98.95	12.5	12.5054
99.08	12.5	12.5054
99.3	12.0	12.5049
99.43	12.0	12.5049
99.55	12.0	12.5049
99.68	12.0	12.5049
99.81	12.0	12.002
99.96	12.0	12.002
100.09	12.0	12.002
100.27	11.5	12.002
100.41	11.5	11.9751
100.52	11.5	11.9751
100.65	11.5	11.9751
100.77	11.5	11.9751
100.9	11.5	11.9751
101.03	11.5	11.5018
101.16	11.5	11.5018
101.4	11.0	11.5018
101.52	11.0	11.0508
101.66	11.0	11.0508
101.79	11.0	11.0508
101.91	11.0	11.0508
102.04	11.0	11.0508
102.17	11.0	11.0008
102.4	10.5	11.0008
102.53	10.5	11.0008
102.64	10.5	11.0008
102.77	10.5	10.5023
102.89	10.5	10.5023
103.02	10.5	10.5023
103.15	10.5	10.5023
103.29	10.5	10.5023
103.42	10.0	10.5016
103.55	10.0	10.5016
103.67	10.0	10.5016
103.81	10.0	10.5016
103.94	10.0	10.5016
104.07	10.0	10.0027
104.18	10.0	10.0027
104.31	10.0	10.0027
104.44	9.5	10.0027
104.56	9.5	10.0018
104.7	9.5	10.0018
104.83	9.5	10.0018
104.96	9.5	10.0018
105.09	9.5	9.5035
105.22	9.5	9.5035
105.35	9.5	9.5035
105.51	9.0	9.5035
105.64	9.0	9.5035
105.77	9.0	9.0041
105.9	9.0	9.0041
106.03	9.0	9.0041
106.15	9.0	9.0041
106.28	9.0	9.0022
106.46	8.5	9.0022
106.59	8.5	9.0022
106.71	8.5	9.0022
106.81	8.5	9.0022
106.94	8.5	8.5017
107.05	8.5	8.5017
107.18	8.5	8.5017
107.31	8.5	8.5017
107.44	8.5	8.5017
107.57	8.0	8.5015
107.7	8.0	8.5015
107.83	8.0	8.5015
107.95	8.0	8.5015
108.08	8.0	8.5015
108.21	8.0	8.0032
108.33	8.0	8.0032
108.46	8.0	8.0032
108.59	7.5	8.0032
108.71	7.5	8.0015
108.84	7.5	8.0015
108.98	7.5	8.0015
109.11	7.5	8.0015
109.24	7.5	7.5027
109.36	7.5	7.5027
109.49	7.5	7.5027
109.68	7.0	7.5027
109.81	7.0	7.5027
109.94	7.0	7.0071
110.07	7.0	7.0071
110.2	7.0	7.0071
110.32	7.0	7.0071
110.45	7.0	7.0037
110.63	6.5	7.0037
110.75	6.5	7.0037
110.88	6.5	7.0037
110.98	6.5	7.0037
111.11	6.5	6.5038
111.26	6.5	6.5038
111.39	6.5	6.5038
111.52	6.5	6.5038
111.66	6.0	6.5038
111.79	6.0	6.5035
111.93	6.0	6.5035
112.05	6.0	6.5035
112.18	6.0	6.5035
112.32	6.0	6.0035
112.45	6.0	6.0035
112.63	5.5	6.0035
112.76	5.5	6.0035
112.88	5.5	5.5022
113.0	5.5	5.5022
113.13	5.5	5.5022
113.26	5.5	5.5022
113.39	5.5	5.5022
113.52	5.5	5.5
113.7	5.0	5.5
113.83	5.0	5.5
113.96	5.0	5.0035
114.09	5.0	5.0035
114.22	5.0	5.0035
114.35	5.0	5.0035
114.47	5.0	5.0035
114.59	5.0	5.0029
114.78	4.5	5.0029
114.9	4.5	5.0029
115.02	4.5	5.0029
115.15	4.5	5.0029
115.28	4.5	4.5031
115.43	4.5	4.5031
115.56	4.5	4.5031
115.69	4.5	4.5031
115.83	4.0	4.5031
115.96	4.0	4.5028
116.06	4.0	4.5028
116.19	4.0	4.5028
116.32	4.0	4.0022
116.42	4.0	4.0022
116.55	4.0	4.0022
116.65	4.0	4.0022
116.81	3.5	4.0022
116.96	3.5	4.0022
117.09	3.5	3.5117
117.2	3.5	3.5117
117.33	3.5	3.5117
117.46	3.5	3.5117
117.59	3.5	3.5117
117.72	3.5	3.503
117.91	3.0	3.503
118.03	3.0	3.503
118.16	3.0	3.0041
118.28	3.0	3.0041
118.4	3.0	3.0041
118.54	3.0	3.0041
118.66	3.0	3.0041
118.78	3.0	3.003
118.98	2.5	3.003
119.11	2.5	3.003
119.23	2.5	3.003
119.35	2.5	3.003
119.48	2.5	2.5035
119.59	2.5	2.5035
119.71	2.5	2.5035
119.84	2.5	2.5035
119.98	2.5	2.5035
120.12	2.0	2.5028
120.26	2.0	2.5028
120.39	2.0	2.5028
120.52	2.0	2.0058
120.62	2.0	2.0058
120.75	2.0	2.0058
120.88	2.0	2.0058
121.01	2.0	2.0058
121.14	1.5	2.0058
121.27	1.5	2.0055
121.41	1.5	2.0055
121.54	1.5	2.0055
121.66	1.5	2.0055
121.8	1.5	1.5056
121.93	1.5	1.5056
122.13	1.0	1.5056
122.27	1.0	1.5056
122.4	1.0	1.0052
122.55	1.0	1.0052
122.69	1.0	1.0052
122.82	1.0	1.0052
122.96	1.0	1.0031
123.15	0.5	1.0031
123.28	0.5	1.0031
123.43	0.5	0.5029
123.56	0.5	0.5029
123.69	0.5	0.5029
123.81	0.5	0.5029
123.94	0.5	0.5029
124.07	0.5	0.5025
124.26	0.0	0.5025
124.38	0.0	0.5025
124.52	0.0	0.5025
124.65	0.0	0.5025
124.77	0.0	0.0
124.9	0.0	0.0
125.03	0.0	0.0
